XYDATA
TITLE: XYDATA  Data from POLARIS at ISIS on CeCuAl3
! File saved from TOT-FIT
! File name: cecual
! Scattering variable: TOF
!  Time-of-flight     Intensity
     5697.2632    21556.0000      415.0000    21304.5332
     5700.1108    21655.0000      416.0000    21463.8398
     5702.9590    22146.0000      421.0000    21775.1953
     5705.8081    22629.0000      426.0000    22382.5957
     5708.6558    23600.0000      436.0000    23526.0410
     5711.5039    24491.0000      444.0000    25556.8828
     5714.3682    28108.0000      474.0000    28922.5293
     5717.2310    33602.0000      522.0000    33983.6094
     5720.0801    41280.0000      579.0000    40818.9844
     5722.9429    49249.0000      631.0000    49134.9844
     5725.8071    58749.0000      694.0000    57995.5938
     5728.6709    66010.0000      733.0000    66099.1875
     5731.5352    72016.0000      771.0000    72177.3906
     5734.3979    75814.0000      788.0000    75434.7812
     5737.2769    76019.0000      790.0000    75780.9062
     5740.1411    73794.0000      783.0000    73727.6250
     5743.0039    70040.0000      759.0000    70105.3750
     5745.8828    66909.0000      742.0000    65686.5234
     5748.7622    61260.0000      710.0000    61102.9531
     5751.6250    56952.0000      688.0000    56745.0000
     5754.4888    51698.0000      652.0000    52751.7031
     5757.3682    48688.0000      633.0000    49158.4766
     5760.2471    44898.0000      608.0000    45990.3047
     5763.1260    42460.0000      592.0000    43239.9258
     5766.0200    39490.0000      568.0000    40910.0938
     5768.9141    39121.0000      569.0000    39073.2734
     5771.7930    38227.0000      562.0000    37849.6016
     5774.6719    37899.0000      560.0000    37401.0156
     5777.5508    38751.0000      567.0000    37906.0117
     5780.4448    40660.0000      579.0000    39499.1328
     5783.3389    44217.0000      607.0000    42120.2969
     5786.2339    46223.0000      618.0000    45442.5117
     5789.1279    48657.0000      639.0000    48880.0195
     5792.0220    51135.0000      652.0000    51742.9570
     5794.9170    50920.0000      655.0000    53468.8125
     5797.8110    51145.0000      653.0000    53816.3047
     5800.7202    51446.0000      656.0000    52905.0781
     5803.6138    50539.0000      654.0000    51140.8047
     5806.5088    49830.0000      646.0000    49029.0938
     5809.4180    48554.0000      638.0000    47061.1172
     5812.3281    47719.0000      633.0000    45673.3672
     5815.2368    48380.0000      638.0000    45180.6094
     5818.1470    47406.0000      632.0000    45721.5312
     5821.0562    47789.0000      635.0000    47221.5273
     5823.9658    49474.0000      647.0000    49342.4648
     5826.8750    50143.0000      652.0000    51534.1562
     5829.7852    51204.0000      660.0000    53193.7812
     5832.6948    52060.0000      666.0000    53872.2891
     5835.6040    51911.0000      665.0000    53425.4531
     5838.5288    52358.0000      665.0000    52012.7070
     5841.4541    51069.0000      661.0000    50027.8008
     5844.3628    48970.0000      648.0000    47986.8672
     5847.2881    48341.0000      641.0000    46420.1367
     5850.2129    46740.0000      633.0000    45954.3711
     5853.1382    47927.0000      639.0000    47282.3398
     5856.0630    50858.0000      662.0000    51113.7188
     5858.9868    57339.0000      701.0000    57964.2109
     5861.9282    67212.0000      761.0000    67898.9688
     5864.8530    80356.0000      838.0000    79978.8828
     5867.7769    92672.0000      898.0000    92577.3984
     5870.7178   103541.0000      952.0000   103620.8594
     5873.6582   110066.0000      984.0000   111110.4688
     5876.5981   114675.0000     1005.0000   114046.2109
     5879.5381   112584.0000      997.0000   112571.9375
     5882.4780   109247.0000      982.0000   107692.7188
     5885.4180   102176.0000      950.0000   100753.3906
     5888.3579    93900.0000      910.0000    92973.1562
     5891.2988    85872.0000      870.0000    85203.9766
     5894.2388    78817.0000      833.0000    77923.4531
     5897.1938    71195.0000      787.0000    71289.1719
     5900.1499    64819.0000      755.0000    65371.2500
     5903.0898    61115.0000      733.0000    60158.2812
     5906.0449    54900.0000      691.0000    55530.0352
     5909.0010    49761.0000      662.0000    51446.2031
     5911.9409    46873.0000      642.0000    47863.8164
     5914.8960    44306.0000      622.0000    44688.2695
     5917.8672    41141.0000      599.0000    41874.6875
     5920.8232    38627.0000      584.0000    39408.2383
     5923.7778    36936.0000      569.0000    37235.4648
     5926.7500    35011.0000      554.0000    35309.7930
     5929.7051    33032.0000      541.0000    33623.0898
     5932.6602    31548.0000      527.0000    32136.6523
     5935.6309    30318.0000      517.0000    30820.2500
     5938.6021    29353.0000      509.0000    29660.8047
     5941.5718    28483.0000      501.0000    28640.2910
     5944.5430    28128.0000      499.0000    27741.1855
     5947.5142    26550.0000      485.0000    26949.4883
     5950.4849    26218.0000      482.0000    26252.4961
     5953.4561    25895.0000      480.0000    25638.6973
     5956.4419    25148.0000      471.0000    25095.7852
     5959.4282    24352.0000      466.0000    24618.0391
     5962.3989    23530.0000      458.0000    24199.8008
     5965.3848    23675.0000      458.0000    23829.8789
     5968.3711    23409.0000      458.0000    23504.4512
     5971.3569    23079.0000      453.0000    23218.3008
     5974.3428    23277.0000      458.0000    22966.6953
     5977.3301    23425.0000      457.0000    22745.4180
     5980.3149    22867.0000      454.0000    22551.1230
     5983.3008    22803.0000      452.0000    22385.1094
     5986.3032    22051.0000      445.0000    22234.5039
     5989.2891    22105.0000      448.0000    22103.1602
     5992.2749    21966.0000      445.0000    21988.0273
     5995.2759    22089.0000      446.0000    21886.7402
     5998.2778    21799.0000      444.0000    21798.2168
     6001.2788    21615.0000      442.0000    21721.0410
     6004.2808    21330.0000      440.0000    21653.8750
     6007.2822    21654.0000      443.0000    21595.6348
     6010.2842    22452.0000      452.0000    21545.3262
     6013.2852    21700.0000      445.0000    21502.1309
     6016.2871    22248.0000      450.0000    21465.2988
     6019.3032    21889.0000      445.0000    21434.1016
     6022.3198    21356.0000      442.0000    21408.2070
     6025.3208    21569.0000      445.0000    21387.3027
     6028.3379    22108.0000      448.0000    21375.1777
     6031.3550    21849.0000      448.0000    21373.3438
     6034.3560    21718.0000      447.0000    21375.9570
     6037.3730    21447.0000      443.0000    21383.4492
     6040.4048    21456.0000      443.0000    21397.0762
     6043.4219    21628.0000      448.0000    21419.5566
     6046.4380    20926.0000      439.0000    21457.5273
     6049.4712    21568.0000      446.0000    21526.1953
     6052.4868    22167.0000      454.0000    21656.0859
     6055.5039    22068.0000      452.0000    21909.1992
     6058.5361    21940.0000      451.0000    22399.1035
     6061.5679    22645.0000      458.0000    23301.7188
     6064.6001    24436.0000      476.0000    24854.0918
     6067.6318    26843.0000      500.0000    27302.9121
     6070.6641    31015.0000      538.0000    30803.0547
     6073.6958    35852.0000      579.0000    35282.7617
     6076.7441    40221.0000      611.0000    40386.3750
     6079.7910    45207.0000      652.0000    45415.8906
     6082.8232    50174.0000      688.0000    49601.5469
     6085.8550    52763.0000      706.0000    52436.6016
     6088.9019    53497.0000      708.0000    53838.4492
     6091.9502    54106.0000      717.0000    54199.5195
     6094.9971    54165.0000      714.0000    54293.9414
     6098.0439    55081.0000      724.0000    55016.0391
     6101.0918    57210.0000      735.0000    57101.0078
     6104.1401    59837.0000      757.0000    60866.6797
     6107.1870    66562.0000      796.0000    66041.3594
     6110.2490    71681.0000      827.0000    71812.6406
     6113.3120    77778.0000      863.0000    76979.7031
     6116.3589    81287.0000      888.0000    80477.5625
     6119.4072    80886.0000      882.0000    81870.8984
     6122.4692    81052.0000      884.0000    81450.2109
     6125.5322    79716.0000      877.0000    80167.3594
     6128.5952    79201.0000      875.0000    79325.2969
     6131.6572    79812.0000      879.0000    80154.2188
     6134.7202    84587.0000      906.0000    83410.5078
     6137.7979    90534.0000      935.0000    89097.1875
     6140.8760    95807.0000      968.0000    96272.5938
     6143.9380   102415.0000     1002.0000   103279.7656
     6147.0010   108980.0000     1036.0000   108414.7812
     6150.0791   109779.0000     1036.0000   110438.3281
     6153.1572   107897.0000     1032.0000   108982.6719
     6156.2349   104469.0000     1011.0000   104600.9609
     6159.3130    97784.0000      983.0000    98384.6016
     6162.3911    90516.0000      941.0000    91568.0000
     6165.4692    85517.0000      919.0000    85273.3203
     6168.5469    80929.0000      890.0000    80444.0312
     6171.6411    79280.0000      882.0000    77853.9375
     6174.7339    80191.0000      888.0000    78104.6406
     6177.8271    82185.0000      900.0000    81388.3359
     6180.9048    87219.0000      933.0000    87236.5469
     6183.9829    94442.0000      968.0000    94507.3203
     6187.0762   100231.0000      999.0000   101537.6719
     6190.1699   105032.0000     1024.0000   106536.7344
     6193.2632   106973.0000     1034.0000   108316.8984
     6196.3721   105456.0000     1023.0000   106598.2500
     6199.4800   103904.0000     1021.0000   101944.6797
     6202.5742    97177.0000      987.0000    95424.2422
     6205.6670    90485.0000      953.0000    88073.8125
     6208.7749    82273.0000      904.0000    80653.8828
     6211.8838    74683.0000      865.0000    73678.8203
     6214.9780    69202.0000      833.0000    67391.5234
     6218.0859    62253.0000      786.0000    61783.5156
     6221.1948    57548.0000      760.0000    56840.3867
     6224.3042    51948.0000      718.0000    52502.8125
     6227.4268    48382.0000      694.0000    48687.4883
     6230.5361    45067.0000      673.0000    45361.6836
     6233.6450    42227.0000      649.0000    42450.6523
     6236.7690    38440.0000      619.0000    39891.0938
     6239.8921    37159.0000      609.0000    37653.2383
     6243.0161    34937.0000      591.0000    35695.7109
     6246.1401    32863.0000      574.0000    33984.2500
     6249.2642    31334.0000      561.0000    32488.1719
     6252.3882    30288.0000      552.0000    31180.6211
     6255.5122    28562.0000      536.0000    30038.0801
     6258.6362    27647.0000      528.0000    29039.9727
     6261.7598    27213.0000      525.0000    28168.4141
     6264.8838    26108.0000      514.0000    27407.3848
     6268.0229    26053.0000      512.0000    26740.2402
     6271.1621    24940.0000      504.0000    26158.7109
     6274.2861    24936.0000      504.0000    25654.3926
     6277.4258    24698.0000      500.0000    25213.0449
     6280.5649    24038.0000      496.0000    24829.2734
     6283.7041    23360.0000      487.0000    24495.9023
     6286.8579    23414.0000      488.0000    24205.4805
     6289.9980    22994.0000      486.0000    23955.2246
     6293.1372    22772.0000      482.0000    23739.1602
     6296.2920    22958.0000      484.0000    23552.2891
     6299.4458    22197.0000      477.0000    23392.2598
     6302.5850    22084.0000      478.0000    23256.5488
     6305.7251    22736.0000      483.0000    23141.7852
     6308.8789    21717.0000      473.0000    23045.5234
     6312.0332    21254.0000      468.0000    22966.6367
     6315.1880    21143.0000      467.0000    22904.0332
     6318.3579    21501.0000      469.0000    22830.9688
     6321.5278    23139.0000      490.0000    22775.6152
     6324.6831    23013.0000      489.0000    22743.2285
     6327.8369    24018.0000      500.0000    22746.8457
     6331.0068    24968.0000      508.0000    22818.7246
     6334.1768    26772.0000      529.0000    23030.3809
     6337.3320    27383.0000      535.0000    23525.4414
     6340.5010    29347.0000      552.0000    24580.5078
     6343.6709    30716.0000      568.0000    26644.4219
     6346.8408    33154.0000      588.0000    30347.5664
     6350.0259    38315.0000      633.0000    36429.9297
     6353.1958    46230.0000      699.0000    45351.1406
     6356.3662    55479.0000      764.0000    57090.9297
     6359.5508    69611.0000      858.0000    70803.3281
     6362.7358    83121.0000      940.0000    84649.5469
     6365.9209    93558.0000     1000.0000    96406.0078
     6369.1060   101405.0000     1043.0000   104195.8828
     6372.2920   106520.0000     1070.0000   107153.8203
     6375.4771   106631.0000     1072.0000   105586.8672
     6378.6621   101298.0000     1045.0000   100637.6875
     6381.8472    95725.0000     1016.0000    93725.5156
     6385.0322    87450.0000      971.0000    86086.1562
     6388.2168    80392.0000      931.0000    78557.1797
     6391.4180    72929.0000      882.0000    71546.0938
     6394.6191    66047.0000      844.0000    65261.3359
     6397.8042    58701.0000      795.0000    59741.9922
     6401.0039    54842.0000      766.0000    54880.8047
     6404.2051    49371.0000      730.0000    50629.5156
     6407.4048    45169.0000      695.0000    46918.3984
     6410.6211    42644.0000      676.0000    43662.4922
     6413.8218    39544.0000      655.0000    40834.8477
     6417.0220    37234.0000      633.0000    38366.6758
     6420.2378    35627.0000      620.0000    36202.0195
     6423.4541    33602.0000      602.0000    34313.0312
     6426.6689    32660.0000      594.0000    32665.4023
     6429.8848    30758.0000      577.0000    31227.0059
     6433.1011    30865.0000      579.0000    29971.3047
     6436.3169    30128.0000      572.0000    28875.2266
     6439.5332    29625.0000      568.0000    27917.9844
     6442.7490    29624.0000      568.0000    27082.0430
     6445.9639    28805.0000      561.0000    26351.9102
     6449.1802    27490.0000      549.0000    25713.5273
     6452.4121    26900.0000      541.0000    25152.9121
     6455.6431    27100.0000      546.0000    24663.0879
     6458.8579    25438.0000      529.0000    24236.7969
     6462.0889    25090.0000      524.0000    23861.9102
     6465.3198    25100.0000      527.0000    23533.8359
     6468.5508    23768.0000      511.0000    23246.5957
     6471.7979    24144.0000      515.0000    22993.8223
     6475.0288    23048.0000      506.0000    22773.4922
     6478.2598    22326.0000      496.0000    22580.3516
     6481.5059    22473.0000      498.0000    22410.2617
     6484.7529    23580.0000      511.0000    22261.1680
     6488.0000    22500.0000      500.0000    22130.5508
     6491.2461    22125.0000      496.0000    22016.2305
     6494.4932    21670.0000      491.0000    21915.4922
     6497.7388    21689.0000      492.0000    21832.6602
     6500.9849    22078.0000      497.0000    21756.9688
     6504.2319    20888.0000      484.0000    21691.5957
     6507.4790    21252.0000      488.0000    21635.7461
     6510.7251    21140.0000      488.0000    21588.9180
     6513.9858    21241.0000      487.0000    21550.9121
     6517.2480    20652.0000      483.0000    21522.8223
     6520.4951    20924.0000      486.0000    21507.5586
     6523.7559    20741.0000      483.0000    21512.3945
     6527.0181    20562.0000      483.0000    21555.4219
     6530.2798    21749.0000      495.0000    21677.6504
     6533.5571    21853.0000      497.0000    21968.1426
     6536.8179    21345.0000      494.0000    22593.1719
     6540.0801    22802.0000      508.0000    23844.2656
     6543.3569    24574.0000      528.0000    26169.8125
     6546.6338    27825.0000      562.0000    30077.9219
     6549.9121    34910.0000      631.0000    36027.0859
     6553.1880    44942.0000      716.0000    44118.4570
     6556.4658    55225.0000      796.0000    53872.2578
     6559.7432    65541.0000      869.0000    64116.2812
     6563.0200    75066.0000      931.0000    73253.7031
     6566.2959    79390.0000      959.0000    79784.0938
     6569.5742    81831.0000      975.0000    82857.1250
     6572.8511    84359.0000      991.0000    82493.1953
     6576.1431    78481.0000      952.0000    79421.0938
     6579.4360    74440.0000      932.0000    74739.7031
     6582.7280    70614.0000      904.0000    69558.2812
     6586.0210    64773.0000      870.0000    64808.8047
     6589.3130    59981.0000      834.0000    61265.0781
     6592.6050    58387.0000      827.0000    59606.3125
     6595.8970    59729.0000      833.0000    60424.0078
     6599.2051    63345.0000      859.0000    64095.7266
     6602.4980    70976.0000      915.0000    70440.6406
     6605.7900    78709.0000      961.0000    78605.5781
     6609.0981    88425.0000     1021.0000    87101.5703
     6612.4048    93621.0000     1052.0000    94050.6406
     6615.7129    98270.0000     1080.0000    97974.0547
     6619.0210    97800.0000     1078.0000    98239.2188
     6622.3291    95004.0000     1063.0000    95157.9219
     6625.6362    90258.0000     1037.0000    89675.8828
     6628.9438    84939.0000     1006.0000    82914.7656
     6632.2671    76928.0000      953.0000    75789.5078
     6635.5898    70188.0000      915.0000    68957.2109
     6638.8970    64147.0000      875.0000    62755.9609
     6642.2212    56656.0000      818.0000    57221.0391
     6645.5430    51418.0000      784.0000    52376.5312
     6648.8672    47769.0000      752.0000    48152.6719
     6652.1890    44105.0000      727.0000    44483.0625
     6655.5132    40019.0000      690.0000    41292.5000
     6658.8511    37221.0000      666.0000    38511.2266
     6662.1729    34993.0000      649.0000    36107.0977
     6665.4971    32749.0000      625.0000    34017.1016
     6668.8350    31137.0000      610.0000    32194.4844
     6672.1738    30552.0000      605.0000    30611.3438
     6675.5122    29043.0000      591.0000    29236.5742
     6678.8501    27660.0000      577.0000    28042.4531
     6682.1880    26264.0000      563.0000    27004.8008
     6685.5269    25424.0000      554.0000    26102.5742
     6688.8652    24584.0000      546.0000    25318.1641
     6692.2031    24317.0000      543.0000    24635.8730
     6695.5571    24423.0000      542.0000    24039.3555
     6698.9111    23098.0000      530.0000    23520.2090
     6702.2490    23381.0000      534.0000    23070.1406
     6705.6030    22860.0000      526.0000    22675.8809
     6708.9561    22851.0000      529.0000    22332.0957
     6712.3101    22260.0000      520.0000    22031.8672
     6715.6792    22861.0000      528.0000    21768.3711
     6719.0322    21751.0000      518.0000    21538.9805
     6722.3862    21408.0000      512.0000    21337.9336
     6725.7549    21948.0000      519.0000    21160.8027
     6729.1240    21234.0000      511.0000    21005.1855
     6732.4780    22028.0000      523.0000    20868.8145
     6735.8311    21324.0000      513.0000    20748.5273
     6739.2002    21347.0000      514.0000    20641.6777
     6742.5688    20591.0000      505.0000    20547.0352
     6745.9531    20556.0000      503.0000    20462.5996
     6749.3369    21042.0000      512.0000    20387.4355
     6752.7070    21029.0000      512.0000    20320.5664
     6756.0762    21024.0000      512.0000    20260.6445
     6759.4590    20413.0000      503.0000    20206.5430
     6762.8442    20950.0000      512.0000    20157.6973
     6766.2129    20485.0000      507.0000    20113.6738
     6769.5972    20210.0000      502.0000    20073.4688
     6772.9810    19717.0000      499.0000    20036.7930
     6776.3652    20238.0000      503.0000    20003.2051
