XYDATA
TITLE: #  LaMnO3 - Polaris
! File saved from TOT-FIT
! File name: lamn_pol
! Scattering variable: TOF
!  Time-of-flight     Intensity
     7545.3120      212.2400        5.1300      206.5661
     7549.8320      211.9400        5.1200      206.4069
     7554.3672      204.7200        5.0400      206.2486
     7558.9019      202.5700        5.0100      206.0917
     7563.4380      199.9700        4.9900      205.9362
     7567.9731      209.9100        5.1200      205.7824
     7572.5078      205.9300        5.0700      205.6302
     7577.0591      203.3500        5.0300      205.4792
     7581.6089      200.7000        5.0200      205.3301
     7586.1602      202.9800        5.0400      205.1828
     7590.7100      209.1200        5.1300      205.0376
     7595.2612      206.3200        5.0900      204.8945
     7599.8271      206.6000        5.1000      204.7531
     7604.3921      210.5400        5.1500      204.6142
     7608.9429      212.1400        5.1900      204.4781
     7613.5088      201.5300        5.0300      204.3443
     7618.0889      204.5500        5.0900      204.2128
     7622.6548      207.0400        5.1300      204.0847
     7627.2212      204.3400        5.1000      203.9598
     7631.8018      199.1700        5.0300      203.8378
     7636.3828      199.0100        5.0500      203.7194
     7640.9639      202.0100        5.0700      203.6048
     7645.5449      208.5700        5.1800      203.5390
     7650.1260      206.7200        5.1400      203.4334
     7654.7222      202.9000        5.1000      203.3322
     7659.3179      199.8200        5.0700      203.2361
     7663.9150      212.5600        5.2300      203.1454
     7668.5112      210.3800        5.2100      203.0605
     7673.1069      205.3100        5.1500      202.9820
     7677.7031      209.4100        5.2100      202.9103
     7682.3140      200.3900        5.0800      202.8459
     7686.9258      204.5500        5.1600      202.7895
     7691.5381      198.5000        5.0700      202.7421
     7696.1641      199.9300        5.0900      202.7044
     7700.7749      195.2200        5.0600      202.6776
     7705.3872      200.7300        5.1100      202.6626
     7710.0142      200.8800        5.1200      202.6608
     7714.6401      204.6100        5.1800      202.6737
     7719.2671      206.1100        5.2000      202.7032
     7723.8940      202.8300        5.1600      202.7514
     7728.5352      212.8100        5.2800      202.8210
     7733.1768      203.4600        5.1800      202.9150
     7737.8188      201.3500        5.1400      203.0375
     7742.4600      209.6600        5.2700      203.1941
     7747.1030      210.0500        5.2700      203.3934
     7751.7598      210.0400        5.2700      203.6512
     7756.4009      205.4100        5.2400      203.9934
     7761.0430      205.1100        5.2200      204.4728
     7765.7012      197.8900        5.1300      205.1897
     7770.3730      209.6900        5.2700      206.3213
     7775.0449      212.5300        5.3300      208.1599
     7779.7021      207.9800        5.2800      211.1453
     7784.3589      215.9000        5.3900      215.9044
     7789.0308      220.7700        5.4300      223.2364
     7793.7192      228.2300        5.5300      233.9944
     7798.3911      246.4800        5.7700      248.7709
     7803.0630      259.0700        5.9100      267.8444
     7807.7510      282.0100        6.1700      290.8517
     7812.4380      309.3000        6.4700      316.6848
     7817.1260      335.6400        6.7400      342.4565
     7821.8130      366.0100        7.0500      365.5418
     7826.5010      391.2500        7.3000      383.0289
     7831.2041      405.1200        7.4100      392.8445
     7835.9058      408.8700        7.4800      394.2308
     7840.5942      402.7400        7.4300      388.2947
     7845.2969      383.8400        7.2400      376.5519
     7850.0151      379.0600        7.2000      361.2882
     7854.7329      358.4300        7.0100      345.1575
     7859.4360      331.1300        6.7600      330.7738
     7864.1382      313.9200        6.5700      320.5530
     7868.8560      301.6200        6.4500      316.9611
     7873.5889      301.2400        6.4300      322.6718
     7878.3232      312.6000        6.5800      340.3884
     7883.0410      335.9400        6.8300      372.3591
     7887.7739      374.8500        7.2000      420.2433
     7892.5068      438.3300        7.8200      483.6441
     7897.2402      525.9500        8.5500      559.6769
     7901.9731      629.4100        9.3900      642.4106
     7906.7061      740.5700       10.1700      723.1692
     7911.4551      842.9800       10.8700      792.0262
     7916.2031      896.5800       11.2200      839.4537
     7920.9521      923.8500       11.4000      859.8252
     7925.7002      929.7000       11.4500      852.3210
     7930.4629      875.3800       11.0900      820.3277
     7935.2271      827.8600       10.8300      770.1915
     7939.9912      745.7100       10.2500      709.4196
     7944.7539      661.5400        9.6900      645.1681
     7949.5181      588.8200        9.1200      583.1940
     7954.2969      505.7000        8.4600      527.4175
     7959.0601      454.4200        8.0500      480.6015
     7963.8242      398.6900        7.5300      443.6815
     7968.6030      370.1300        7.2600      416.9565
     7973.3970      347.1000        7.0200      400.5239
     7978.1909      336.5300        6.9400      394.4483
     7982.9702      315.7500        6.7300      398.8007
     7987.7490      322.5400        6.8100      413.8371
     7992.5430      338.4900        6.9600      440.1113
     7997.3521      366.5900        7.2500      478.2561
     8002.1460      418.2000        7.7800      528.4893
     8006.9399      501.7500        8.5000      591.1429
     8011.7500      583.8700        9.1800      666.3300
     8016.5591      709.6200       10.1400      753.1293
     8021.3682      841.6400       11.0600      850.1567
     8026.1768     1003.5500       12.0900      955.2239
     8030.9868     1160.0300       13.0200     1065.3789
     8035.8110     1313.4200       13.8400     1177.1263
     8040.6348     1457.0900       14.6400     1285.6306
     8045.4600     1553.7600       15.0900     1385.9764
     8050.2842     1621.8300       15.4900     1473.0725
     8055.1079     1645.3400       15.5700     1542.2998
     8059.9482     1659.8800       15.6600     1590.0833
     8064.7881     1655.2900       15.6500     1613.6318
     8069.6279     1602.9399       15.4200     1612.2528
     8074.4668     1581.9500       15.3300     1586.8177
     8079.3071     1526.4399       15.0700     1539.4751
     8084.1621     1484.9600       14.8300     1473.2123
     8089.0171     1402.5500       14.4700     1392.0731
     8093.8569     1309.7000       14.0000     1300.6365
     8098.7119     1214.3500       13.4400     1202.7640
     8103.5820     1115.6200       12.9000     1102.3125
     8108.4370     1018.8300       12.3700     1003.7839
     8113.2920      901.1000       11.6100      910.1337
     8118.1621      786.1600       10.8500      823.8447
     8123.0322      671.4400       10.0300      747.4547
     8127.9170      609.4100        9.5400      682.5363
     8132.8018      539.6000        9.0100      630.6550
     8137.6729      505.6900        8.7300      592.8041
     8142.5591      508.4400        8.7400      569.2589
     8147.4438      509.5900        8.7800      560.1980
     8152.3291      536.9200        9.0000      565.1175
     8157.2290      583.4800        9.3900      582.9647
     8162.1152      619.7800        9.7200      611.7915
     8167.0000      680.2700       10.1700      649.0056
     8171.9009      721.7400       10.4800      691.3993
     8176.8169      749.0100       10.6600      734.9740
     8181.7319      793.7700       11.0200      775.1918
     8186.6328      844.6700       11.3800      807.7037
     8191.5479      861.7700       11.4800      829.1428
     8196.4648      874.2100       11.6100      837.0818
     8201.3809      838.9300       11.3500      830.7076
     8206.2959      832.5000       11.3500      810.7012
     8211.2119      791.2500       11.0400      778.9482
     8216.1426      729.8400       10.6100      738.1003
     8221.0742      669.9600       10.1800      691.6129
     8226.0049      614.7900        9.7600      643.2263
     8230.9365      575.8800        9.4500      596.7823
     8235.8828      525.3400        9.0100      555.9674
     8240.8291      498.5800        8.8100      524.3196
     8245.7754      494.1200        8.7600      504.2611
     8250.7217      493.6500        8.7900      496.5419
     8255.6670      495.7600        8.7900      499.6053
     8260.6289      529.8600        9.1000      509.3994
     8265.5908      531.8200        9.1200      519.8219
     8270.5371      538.6300        9.2200      524.5840
     8275.4980      517.2400        8.9900      519.2111
     8280.4746      493.9800        8.8200      502.4748
     8285.4365      482.3300        8.7300      476.3015
     8290.3975      435.4800        8.3000      444.1866
     8295.3740      406.4100        8.0000      409.8832
     8300.3506      370.8200        7.6700      376.7267
     8305.3271      340.3500        7.3400      346.8211
     8310.3193      314.9400        7.0600      321.0637
     8315.3115      304.4800        6.9500      299.6789
     8320.3027      285.5900        6.7400      282.2962
     8325.2949      271.0100        6.5700      268.3279
     8330.2871      257.6300        6.4200      257.1703
     8335.2783      250.6700        6.3400      248.2773
     8340.2715      245.7700        6.2800      241.1851
     8345.2783      241.2000        6.2100      235.5113
     8350.2852      230.3100        6.0900      230.9782
     8355.2930      233.4400        6.1200      227.3484
     8360.3145      227.6400        6.0500      224.4288
     8365.3369      234.1000        6.1400      222.0814
     8370.3594      220.3900        5.9700      220.1895
     8375.3818      220.8400        5.9800      218.6608
     8380.4043      223.6700        6.0300      217.8408
     8385.4268      221.4100        6.0000      216.8408
     8390.4492      225.7400        6.0700      216.0281
     8395.4863      214.5200        5.9000      215.3651
     8400.5234      228.7800        6.1200      214.8257
     8405.5615      228.3400        6.1000      214.3871
     8410.6143      221.2700        6.0100      214.0303
     8415.6670      214.7200        5.9300      213.7424
     8420.7197      213.1000        5.9200      213.5118
     8425.7725      212.9300        5.9200      213.3293
     8430.8252      216.3600        5.9700      213.1876
     8435.8779      225.8300        6.1100      213.0808
     8440.9307      229.1700        6.1600      213.0042
     8445.9990      211.8300        5.9100      212.9541
     8451.0664      209.4800        5.9000      212.9275
     8456.1348      215.8200        5.9800      212.9220
     8461.2178      205.1800        5.8400      212.9358
     8466.3008      211.1500        5.9300      212.9674
     8471.3691      213.2300        5.9800      213.0153
     8476.4385      215.8700        6.0100      213.0786
     8481.5361      211.6600        5.9400      213.1571
     8486.6348      214.0200        6.0000      213.2498
     8491.7178      219.2800        6.0800      213.3562
     8496.8154      214.4600        6.0000      213.4765
     8501.9141      216.6600        6.0500      213.6103
     8507.0127      214.7600        6.0100      213.7577
     8512.1260      217.9800        6.0700      213.9192
     8517.2246      214.3300        6.0400      214.0941
     8522.3223      211.8000        5.9900      214.2831
     8527.4365      213.5600        6.0200      214.4874
     8532.5654      207.2300        5.9200      214.7076
     8537.6943      208.1500        5.9600      214.9437
     8542.8076      206.6400        5.9500      215.1958
     8547.9365      217.5200        6.0900      215.4662
     8553.0654      222.5700        6.1800      215.7554
     8558.1943      219.6700        6.1300      216.0644
     8563.3389      218.7200        6.1300      216.3958
     8568.4678      211.3900        6.0500      216.7491
     8573.5967      211.7900        6.0400      217.1272
     8578.7402      220.6900        6.1700      217.5331
     8583.8994      217.9200        6.1200      217.9698
     8589.0586      216.6200        6.1300      218.4388
     8594.2031      217.5400        6.1500      218.9418
     8599.3623      214.6400        6.1000      219.4853
     8604.5215      219.2200        6.1900      220.0721
     8609.6816      216.3600        6.1400      220.7074
     8614.8555      211.1400        6.0700      221.3986
     8620.0146      212.8600        6.1200      222.1488
     8625.1748      217.3800        6.1700      222.9678
     8630.3486      227.2400        6.3200      223.8675
     8635.5381      215.6400        6.1400      224.8601
     8640.7285      215.6300        6.1700      225.9572
     8645.9033      228.5200        6.3600      227.1713
     8651.0928      223.9200        6.2800      228.5306
     8656.2822      230.1500        6.3900      230.0590
     8661.4717      221.2000        6.2600      231.7948
     8666.6768      227.8900        6.3600      233.8063
     8671.8818      235.1100        6.4600      236.2048
     8677.0869      228.6700        6.3800      239.2301
     8682.2920      232.2600        6.4400      243.3864
     8687.4971      235.5300        6.4900      249.6898
     8692.7021      241.2800        6.5800      260.0189
     8697.9219      266.6900        6.9000      277.5369
     8703.1426      313.4300        7.5100      306.7091
     8708.3623      350.8600        7.9400      352.8832
     8713.5977      431.6800        8.8100      421.1870
     8718.8184      519.7100        9.7100      513.5406
     8724.0381      630.9300       10.6900      627.6224
     8729.2734      761.9900       11.7600      755.4827
     8734.5088      875.8000       12.6300      883.6269
     8739.7598      994.7900       13.4400      999.0280
     8745.0107     1081.0300       14.0700     1094.1304
     8750.2461     1169.7800       14.6500     1171.1606
     8755.4961     1254.7500       15.1500     1240.5323
     8760.7617     1315.9000       15.5400     1314.8882
     8766.0127     1400.5699       16.1000     1404.1368
     8771.2627     1515.8101       16.7200     1512.8777
     8776.5283     1642.3199       17.4300     1638.6083
     8781.7949     1799.1100       18.2700     1771.2596
     8787.0605     1915.2900       18.8800     1896.1921
     8792.3418     1991.1100       19.2200     1997.4669
     8797.6230     2028.5699       19.4800     2060.3486
     8802.8887     2046.7200       19.6000     2075.5989
     8808.1699     2030.6200       19.4800     2040.5986
     8813.4668     1936.2800       19.0400     1958.2493
     8818.7471     1846.5800       18.6700     1837.2062
     8824.0283     1705.1500       17.9000     1688.0938
     8829.3242     1562.1500       17.1500     1522.2144
     8834.6211     1351.3101       15.9600     1351.1244
     8839.9326     1205.7000       15.0400     1183.8533
     8845.2441     1035.2300       13.9900     1027.9871
     8850.5400      909.2000       13.1200      888.4633
     8855.8516      758.4200       11.9600      766.6696
     8861.1631      642.8000       11.0500      663.3837
     8866.4746      555.7200       10.2600      577.6176
     8871.8018      491.4800        9.6500      507.3818
     8877.1279      440.0200        9.1500      450.8230
     8882.4551      389.2900        8.6100      405.6802
     8887.7812      375.4500        8.4700      369.8957
     8893.1084      348.5600        8.1700      341.6330
     8898.4502      327.9500        7.9100      319.3078
     8903.7920      305.8500        7.6700      301.7386
     8909.1338      291.0000        7.4700      287.9077
     8914.4766      292.4300        7.5200      277.2762
     8919.8184      284.0100        7.3900      268.6843
     8925.1748      271.8500        7.2400      261.8858
     8930.5322      252.2700        6.9900      256.5211
     8935.8896      250.7100        6.9700      252.2926
     8941.2471      251.9600        7.0000      248.9695
     8946.6191      247.8500        6.9300      246.3671
     8951.9912      242.4700        6.8800      244.3570
     8957.3643      262.0500        7.1400      242.8331
     8962.7363      257.0400        7.1000      241.7151
     8968.1084      249.1200        6.9800      240.9425
     8973.4961      245.6400        6.9400      240.4142
     8978.8838      250.4800        7.0100      240.3008
     8984.2715      245.0500        6.9500      240.3533
     8989.6592      247.3700        6.9900      240.6478
     8995.0469      233.7100        6.8000      241.1836
     9000.4336      236.5000        6.8500      241.9688
     9005.8359      242.8500        6.9300      243.0253
     9011.2393      246.6300        7.0100      244.3821
     9016.6426      240.4200        6.9100      246.0881
     9022.0605      240.0300        6.9100      248.2318
     9027.4785      249.9100        7.0600      250.9624
     9032.8965      238.0700        6.9000      254.5895
     9038.3145      247.2600        7.0400      259.7621
     9043.7324      262.7500        7.2700      267.8164
     9049.1504      270.9300        7.3900      281.3518
     9054.5840      295.9700        7.7100      305.1165
     9060.0166      333.3600        8.2200      346.6854
     9065.4502      415.3500        9.1600      416.9934
     9070.8994      536.9900       10.4300      529.8767
     9076.3477      718.7400       12.0800      698.5654
     9081.7959      946.9000       13.8900      931.6281
     9087.2441     1259.9900       16.0500     1226.8928
     9092.6924     1574.2200       17.9800     1566.3795
     9098.1416     1888.1400       19.7300     1914.5415
     9103.6035     2172.1101       21.1400     2223.0146
     9109.0684     2400.8701       22.3300     2441.1230
     9114.5322     2522.0100       22.8500     2535.2485
     9119.9961     2475.6299       22.7300     2498.9714
     9125.4590     2371.9199       22.2100     2350.9417
     9130.9385     2199.8000       21.4000     2124.3899
     9136.4180     1934.0000       20.0800     1858.0468
     9141.8965     1634.2200       18.4700     1585.7762
     9147.3906     1358.6300       16.8000     1331.0427
     9152.8848     1113.5900       15.2600     1108.2959
     9158.3633      912.2800       13.8300      922.7383
     9163.8574      737.1300       12.4000      772.0994
     9169.3662      605.7400       11.2500      652.3799
     9174.8760      512.5100       10.3600      558.6498
     9180.3701      439.0200        9.6300      485.9238
     9185.8799      403.9500        9.2000      429.3120
     9191.4043      372.0800        8.8600      385.2898
     9196.9141      349.9000        8.6000      351.1989
     9202.4238      332.4800        8.4000      324.6653
     9207.9482      317.8100        8.2000      303.9103
     9213.4727      297.9600        7.9700      287.6726
     9218.9971      294.0600        7.9000      274.9217
     9224.5361      281.2300        7.7400      264.8425
     9230.0762      265.0100        7.5200      256.8586
     9235.6162      259.8700        7.4500      250.5008
     9241.1562      259.0800        7.4500      245.4065
     9246.6963      256.6500        7.4300      241.2770
     9252.2354      246.5200        7.2900      237.9372
     9257.7900      230.5000        7.0400      235.1935
     9263.3457      241.9500        7.2400      232.9265
     9268.9004      246.2200        7.2900      231.0370
     9274.4707      240.0400        7.2100      229.4427
     9280.0254      234.7500        7.1600      228.0920
     9285.5801      238.6300        7.2000      226.9332
     9291.1504      229.6200        7.0700      225.9269
